Project44 DipoleDipole_4
5.00
11
3
Type of measurement (0=app.resistivity,1=resistance)
1
348
2
11
Chargeability
mV/V
8 0.40 0.17 0.03 0.05 0.07 0.08 0.10 0.13 0.15 2.30 1.18
4 10.00 0.00 15.00 0.00 5.00 0.00 0.00 0.00 6.21987 16.4984 14.4561 13.6111 12.7234 11.8093 10.6373 9.56546 8.40531
4 20.00 0.00 25.00 0.00 5.00 0.00 0.00 0.00 0.207286 18.3217 16.4516 15.8355 15.0378 14.1552 13.1048 12.1291 10.9526
4 15.00 0.00 20.00 0.00 10.00 0.00 5.00 0.00 8.62895 20.1821 17.6787 16.6393 15.5388 14.4111 12.9743 11.6564 10.2242
4 20.00 0.00 30.00 0.00 10.00 0.00 0.00 0.00 1.27589 17.7588 15.6436 14.7435 13.743 12.7586 11.5108 10.3643 9.05049
4 20.00 0.00 25.00 0.00 15.00 0.00 10.00 0.00 9.1291 19.7033 17.3979 16.432 15.4078 14.3616 13.0285 11.8044 10.472
4 30.00 0.00 35.00 0.00 5.00 0.00 0.00 0.00 0.019133 15.363 16.4295 15.5554 14.3542 15.2899 14.1454 13.7152 13.0848
4 25.00 0.00 30.00 0.00 10.00 0.00 5.00 0.00 0.0902926 16.7914 14.5997 13.6797 12.5338 11.649 10.7389 9.80927 8.67899
4 25.00 0.00 35.00 0.00 15.00 0.00 5.00 0.00 0.708009 12.3348 10.5871 10.0111 9.35129 8.59136 7.64655 6.96593 5.9835
4 40.00 0.00 45.00 0.00 5.00 0.00 0.00 0.00 0.00224603 -92.6252 -70.6179 -56.1261 -52.7442 -48.145 -40.1694 -30.4522 -17.3296
4 25.00 0.00 30.00 0.00 20.00 0.00 15.00 0.00 4.81284 15.8611 13.8229 12.9634 12.0634 11.1597 10.0226 8.98491 7.87076
4 35.00 0.00 40.00 0.00 10.00 0.00 5.00 0.00 0.0408195 72.127 53.3307 46.0418 38.9123 32.5182 24.7212 18.3958 12.5808
4 30.00 0.00 45.00 0.00 15.00 0.00 0.00 0.00 0.332817 16.8264 13.3406 12.506 11.5002 10.3307 8.87003 7.55937 6.25128
4 30.00 0.00 35.00 0.00 15.00 0.00 10.00 0.00 0.11066 9.44423 8.52428 8.31589 7.89606 7.75109 7.09658 6.60126 6.15991
4 30.00 0.00 40.00 0.00 20.00 0.00 10.00 0.00 1.0245 11.9046 9.7489 8.92462 8.07291 7.15803 6.10157 5.13096 4.20929
4 40.00 0.00 50.00 0.00 10.00 0.00 0.00 0.00 0.0165754 -125.476 -119.941 -107.225 -101.962 -98.5894 -93.0253 -92.763 -84.5305
4 40.00 0.00 45.00 0.00 15.00 0.00 10.00 0.00 0.0105235 5.94387 8.18912 10.5695 9.85762 10.1322 8.90336 8.27231 7.89534
4 30.00 0.00 35.00 0.00 25.00 0.00 20.00 0.00 6.32259 16.0064 14.1448 13.3595 12.5328 11.692 10.6117 9.6198 8.54604
4 45.00 0.00 50.00 0.00 10.00 0.00 5.00 0.00 0.00580993 -208.094 -149.643 -134.93 -118.619 -103.29 -88.0598 -76.2947 -68.8687
4 35.00 0.00 40.00 0.00 20.00 0.00 15.00 0.00 0.275566 21.8486 18.4188 16.5206 14.5869 13.0817 11.2117 9.6607 8.12772
4 35.00 0.00 50.00 0.00 20.00 0.00 5.00 0.00 0.483353 13.127 11.4234 10.5401 9.54363 8.69249 7.63318 6.74263 5.81719
4 45.00 0.00 55.00 0.00 15.00 0.00 5.00 0.00 0.0291335 -40.108 -24.158 -18.7827 -14.4042 -9.89718 -4.89307 -1.93954 0.585186
4 35.00 0.00 45.00 0.00 25.00 0.00 15.00 0.00 2.1816 14.2106 12.3635 11.5342 10.7119 9.88898 8.85136 7.9202 6.90141
4 45.00 0.00 50.00 0.00 20.00 0.00 15.00 0.00 0.0259197 36.2744 24.9319 19.3368 14.8289 10.7003 6.44543 3.27584 0.292161
4 40.00 0.00 55.00 0.00 25.00 0.00 10.00 0.00 0.401653 6.93189 4.18814 4.26976 4.11781 3.64112 2.98976 2.28529 2.21193
4 40.00 0.00 45.00 0.00 25.00 0.00 20.00 0.00 0.133119 4.5115 3.76017 3.43756 3.09094 2.50504 2.28476 1.88492 1.60822
4 35.00 0.00 40.00 0.00 30.00 0.00 25.00 0.00 8.99107 16.3235 14.3036 13.421 12.5022 11.6006 10.4637 9.4338 8.32046
4 50.00 0.00 55.00 0.00 15.00 0.00 10.00 0.00 0.00790633 60.6833 40.7517 33.7203 26.6913 20.8558 13.6086 7.42576 0.811896
4 50.00 0.00 60.00 0.00 20.00 0.00 10.00 0.00 0.0475588 -11.253 -6.06304 -3.14696 -0.176193 2.35354 5.51132 8.74701 11.8377
4 40.00 0.00 50.00 0.00 30.00 0.00 20.00 0.00 0.942561 6.45443 5.5175 5.51581 5.26399 4.98404 4.60014 4.08162 3.74019
4 60.00 0.00 70.00 0.00 10.00 0.00 0.00 0.00 0.00392927 109.44 77.5319 65.7667 55.4069 44.3905 31.6869 26.6496 24.3364
4 60.00 0.00 75.00 0.00 15.00 0.00 0.00 0.00 0.00987843 109.743 80.5472 70.8544 60.2077 50.9286 42.1291 36.8578 30.8356
4 40.00 0.00 45.00 0.00 35.00 0.00 30.00 0.00 2.10705 10.7098 9.22544 8.61444 7.96498 7.31015 6.51364 5.76794 5.01565
4 55.00 0.00 60.00 0.00 20.00 0.00 15.00 0.00 0.012938 -189.311 -133.039 -112.112 -91.3506 -73.6045 -53.6427 -38.3453 -25.0084
4 45.00 0.00 60.00 0.00 30.00 0.00 15.00 0.00 0.78439 11.1384 10.0889 9.3629 8.63173 7.99256 7.23583 6.42974 5.65437
4 45.00 0.00 50.00 0.00 30.00 0.00 25.00 0.00 0.253462 7.63854 7.20683 7.07386 6.85946 6.57758 6.1837 5.75746 5.24128
4 50.00 0.00 55.00 0.00 25.00 0.00 20.00 0.00 0.0716228 20.522 17.0926 15.6717 14.2246 12.8482 11.2603 9.6337 8.12859
4 45.00 0.00 55.00 0.00 35.00 0.00 25.00 0.00 1.86744 16.4401 14.3549 13.4688 12.5494 11.6342 10.4537 9.36753 8.19526
4 65.00 0.00 75.00 0.00 15.00 0.00 5.00 0.00 0.00391652 275.478 196.515 172.197 141.765 110.898 88.4881 74.4106 53.6223
4 55.00 0.00 65.00 0.00 25.00 0.00 15.00 0.00 0.0718912 -12.3726 -5.38514 -3.04614 -0.574225 1.02815 2.94009 4.12953 4.58636
4 60.00 0.00 65.00 0.00 25.00 0.00 20.00 0.00 0.0145987 18.9536 16.6842 14.0075 12.6814 11.808 9.83402 8.90643 6.93402
4 55.00 0.00 60.00 0.00 30.00 0.00 25.00 0.00 0.0912358 17.3808 15.0542 14.1368 13.139 12.1459 10.9828 9.94053 8.70287
4 50.00 0.00 65.00 0.00 35.00 0.00 20.00 0.00 1.37915 21.6165 18.8256 17.7427 16.4878 15.2698 13.6985 12.2832 10.7557
4 50.00 0.00 55.00 0.00 35.00 0.00 30.00 0.00 0.57373 22.4232 19.5502 18.2333 16.9054 15.6306 14.0453 12.6285 11.1178
4 45.00 0.00 50.00 0.00 40.00 0.00 35.00 0.00 2.14037 9.32581 8.26415 7.87227 7.42726 6.95812 6.3438 5.76923 5.15721
4 65.00 0.00 80.00 0.00 20.00 0.00 5.00 0.00 0.0115972 44.4227 34.6621 34.7417 31.748 27.2429 25.4536 22.2471 19.0714
4 80.00 0.00 90.00 0.00 10.00 0.00 0.00 0.00 0.000367438 -1621.99 -1648.23 -1572.95 -1528.84 -1480.28 -1431.47 -1351.89 -1204.54
4 60.00 0.00 70.00 0.00 30.00 0.00 20.00 0.00 0.0718116 26.8958 22.4829 20.7092 19.0008 17.4054 15.4428 13.7131 11.8904
4 70.00 0.00 80.00 0.00 20.00 0.00 10.00 0.00 0.0049591 87.4164 77.9408 77.6184 76.2833 76.3894 77.9147 71.9245 63.9779
4 50.00 0.00 60.00 0.00 40.00 0.00 30.00 0.00 2.64297 20.1073 17.7039 16.6863 15.607 14.4985 13.1114 11.833 10.4492
4 55.00 0.00 70.00 0.00 40.00 0.00 25.00 0.00 1.42828 24.7649 21.7231 20.5721 19.2577 17.9229 16.1995 14.6062 12.9118
4 55.00 0.00 60.00 0.00 40.00 0.00 35.00 0.00 0.567471 21.3705 19.3772 18.3645 17.3241 16.2533 14.8601 13.5432 12.1255
4 70.00 0.00 85.00 0.00 25.00 0.00 10.00 0.00 0.0167384 14.4215 13.7074 6.73191 5.63862 4.33843 1.52057 -1.2232 -1.54506
4 50.00 0.00 55.00 0.00 45.00 0.00 40.00 0.00 14.2045 24.7165 21.9772 20.8037 19.5738 18.3241 16.7331 15.2724 13.6891
4 65.00 0.00 70.00 0.00 30.00 0.00 25.00 0.00 0.0166821 75.5492 57.625 50.1538 44.5906 38.5879 31.9801 26.4874 20.7388
4 60.00 0.00 65.00 0.00 35.00 0.00 30.00 0.00 0.0956298 27.1397 23.665 21.9325 20.4081 18.9629 16.8752 15.1705 13.1428
4 75.00 0.00 85.00 0.00 25.00 0.00 15.00 0.00 0.00763675 52.1008 34.1853 30.1479 26.87 23.0408 18.0994 14.1404 12.0323
4 55.00 0.00 65.00 0.00 45.00 0.00 35.00 0.00 2.0467 19.8299 17.5763 16.6127 15.5981 14.5462 13.2143 11.978 10.619
4 85.00 0.00 95.00 0.00 15.00 0.00 5.00 0.00 0.00127943 -159.635 -79.9274 -85.511 -77.7722 -65.3117 -52.238 -42.9874 -41.1977
4 65.00 0.00 75.00 0.00 35.00 0.00 25.00 0.00 0.104773 31.8023 26.9883 25.4154 23.6719 21.6921 19.4012 17.2826 15.1806
4 90.00 0.00 105.00 0.00 15.00 0.00 0.00 0.00 0.00118818 79.9769 61.8116 85.4768 83.945 83.7875 70.6183 63.6114 45.8832
4 70.00 0.00 75.00 0.00 35.00 0.00 30.00 0.00 0.0278214 30.7665 27.0935 25.7408 24.1168 22.5905 20.5891 18.6424 16.6295
4 55.00 0.00 60.00 0.00 50.00 0.00 45.00 0.00 16.4009 25.9104 22.907 21.6278 20.2872 18.9232 17.1883 15.5971 13.8784
4 65.00 0.00 70.00 0.00 40.00 0.00 35.00 0.00 0.0996238 38.848 33.7603 31.5657 29.4278 27.2201 24.2742 21.6074 18.9013
4 60.00 0.00 75.00 0.00 45.00 0.00 30.00 0.00 0.801485 23.9372 21.0596 19.8493 18.5498 17.2544 15.633 14.1428 12.5233
4 60.00 0.00 65.00 0.00 45.00 0.00 40.00 0.00 0.179713 14.7095 12.8032 11.9234 11.2212 10.4586 9.3176 8.49507 7.45281
4 75.00 0.00 90.00 0.00 30.00 0.00 15.00 0.00 0.0219509 50.0244 38.6223 35.2916 32.2695 28.7259 23.9379 20.4018 16.5855
4 70.00 0.00 80.00 0.00 40.00 0.00 30.00 0.00 0.141437 34.858 29.6828 27.4423 25.3404 23.3551 20.949 18.8086 16.4998
4 60.00 0.00 70.00 0.00 50.00 0.00 40.00 0.00 1.96973 23.7073 20.7612 19.5325 18.2621 16.9853 15.3865 13.9445 12.4036
4 90.00 0.00 100.00 0.00 20.00 0.00 10.00 0.00 0.00136835 115.431 141.382 124.918 120.188 119.748 114.121 102.331 84.3932
4 80.00 0.00 90.00 0.00 30.00 0.00 20.00 0.00 0.0085359 25.2333 19.2429 21.3933 19.6799 17.8076 14.551 13.8092 13.1086
4 80.00 0.00 95.00 0.00 35.00 0.00 20.00 0.00 0.0313942 38.8946 35.9692 33.8961 33.1108 31.2369 29.5093 28.3874 27.776
4 60.00 0.00 65.00 0.00 55.00 0.00 50.00 0.00 10.9421 23.6984 20.9601 19.7964 18.5717 17.3207 15.7201 14.2505 12.6514
4 75.00 0.00 80.00 0.00 40.00 0.00 35.00 0.00 0.0386378 48.5115 37.6063 34.0225 30.2278 26.7013 23.1265 20.2286 16.8179
4 65.00 0.00 70.00 0.00 50.00 0.00 45.00 0.00 0.377846 30.2614 25.1931 23.0803 20.9821 18.9506 16.4736 14.3202 12.1397
4 70.00 0.00 75.00 0.00 45.00 0.00 40.00 0.00 0.0325328 13.3961 11.7959 11.1674 10.6243 9.7679 8.96787 8.32971 7.40477
4 65.00 0.00 80.00 0.00 50.00 0.00 35.00 0.00 0.926974 26.5995 22.6828 21.1993 19.6244 18.0239 16.1046 14.3869 12.5807
4 95.00 0.00 110.00 0.00 20.00 0.00 5.00 0.00 0.00115076 369.832 292.438 221.307 167.809 134.515 104.068 93.6022 65.872
4 95.00 0.00 105.00 0.00 25.00 0.00 15.00 0.00 0.00115795 1240.78 918.105 796.47 678.523 569.524 464.845 376.884 290.085
4 85.00 0.00 95.00 0.00 35.00 0.00 25.00 0.00 0.0151365 38.716 35.675 32.2966 30.0676 28.0684 24.9615 22.0753 18.2784
4 65.00 0.00 75.00 0.00 55.00 0.00 45.00 0.00 2.86805 24.9156 21.8619 20.5952 19.2808 17.911 16.2302 14.6915 13.0007
4 75.00 0.00 85.00 0.00 45.00 0.00 35.00 0.00 0.0867679 27.9534 24.0028 22.2548 20.6804 19.0017 17.0757 15.3521 13.5802
4 85.00 0.00 100.00 0.00 40.00 0.00 25.00 0.00 0.0438495 34.8415 30.6155 26.9186 24.8694 23.0872 20.6059 18.871 16.5811
4 100.00 0.00 115.00 0.00 25.00 0.00 10.00 0.00 0.00111624 2484.21 1948.24 1715 1490.26 1272.41 1027.1 832.407 647.389
4 65.00 0.00 70.00 0.00 60.00 0.00 55.00 0.00 16.1274 26.0903 23.1932 21.9495 20.6409 19.3038 17.5961 16.0202 14.3079
4 70.00 0.00 75.00 0.00 55.00 0.00 50.00 0.00 0.516707 23.6471 20.8892 19.7209 18.4358 17.1247 15.4399 13.8617 12.0992
4 80.00 0.00 85.00 0.00 45.00 0.00 40.00 0.00 0.00921292 3.23689 7.12659 6.18589 8.56852 9.29679 9.3787 9.1577 8.60832
4 75.00 0.00 80.00 0.00 50.00 0.00 45.00 0.00 0.0813067 46.6831 38.442 35.3056 32.2965 29.4702 26.7112 24.7439 23.1706
4 70.00 0.00 85.00 0.00 55.00 0.00 40.00 0.00 1.19464 23.5471 21.0035 19.7786 18.5782 17.3713 15.8114 14.3668 12.8449
4 80.00 0.00 90.00 0.00 50.00 0.00 40.00 0.00 0.0733584 8.08971 9.87265 11.285 12.3896 13.0229 13.6528 14.0333 14.8034
4 90.00 0.00 100.00 0.00 40.00 0.00 30.00 0.00 0.0207975 38.3121 34.9796 32.643 30.1374 27.9626 25.5985 23.3773 20.9686
4 70.00 0.00 80.00 0.00 60.00 0.00 50.00 0.00 3.81586 25.3611 22.5388 21.3364 20.0827 18.8093 17.1937 15.7035 14.0806
4 100.00 0.00 110.00 0.00 30.00 0.00 20.00 0.00 0.00126439 552.153 449.513 392.753 344.83 302.899 239.16 187.2 151.302
4 120.00 0.00 135.00 0.00 15.00 0.00 0.00 0.00 0.000589433 124.333 18.8165 20.3909 34.1353 -3.86649 -51.0714 -87.1808 -148.316
4 85.00 0.00 90.00 0.00 50.00 0.00 45.00 0.00 0.0213851 9.74906 4.55139 3.17018 0.581859 -1.52284 -1.92867 -3.85899 -4.3961
4 75.00 0.00 80.00 0.00 60.00 0.00 55.00 0.00 0.767035 22.7111 20.0183 18.9805 17.8739 16.6847 15.1998 13.841 12.339
4 90.00 0.00 105.00 0.00 45.00 0.00 30.00 0.00 0.0317161 60.5945 49.3628 46.627 42.9379 39.0897 34.1339 30.0532 25.8952
4 105.00 0.00 120.00 0.00 30.00 0.00 15.00 0.00 0.00179097 -80.3233 -74.8759 -60.7495 -55.7614 -52.2632 -38.4203 -41 -24.7137
4 80.00 0.00 85.00 0.00 55.00 0.00 50.00 0.00 0.105197 19.4257 18.4362 17.9425 17.7553 17.4879 17.3078 17.2654 17.2207
4 70.00 0.00 75.00 0.00 65.00 0.00 60.00 0.00 10.9763 25.5194 22.6759 21.4609 20.1737 18.8595 17.1782 15.6231 13.9236
4 75.00 0.00 90.00 0.00 60.00 0.00 45.00 0.00 1.78592 23.4757 20.4331 19.2063 17.915 16.6064 14.967 13.497 11.9036
4 85.00 0.00 95.00 0.00 55.00 0.00 45.00 0.00 0.136219 25.5177 23.4091 22.0218 20.7902 19.5654 17.9372 16.6083 14.9673
4 105.00 0.00 115.00 0.00 35.00 0.00 25.00 0.00 0.000888384 2702.79 1992.79 1728.83 1474.28 1213.79 907.337 755.049 574.556
4 75.00 0.00 85.00 0.00 65.00 0.00 55.00 0.00 3.32899 22.2004 19.5851 18.4759 17.3192 16.1397 14.6399 13.2669 11.7839
4 95.00 0.00 105.00 0.00 45.00 0.00 35.00 0.00 0.00949945 111.035 88.7143 80.5385 71.9643 63.7081 53.0047 43.7396 35.4745
4 95.00 0.00 110.00 0.00 50.00 0.00 35.00 0.00 0.0215981 6.42317 8.6045 9.12592 8.41251 7.80503 7.21441 6.78229 5.28075
4 80.00 0.00 95.00 0.00 65.00 0.00 50.00 0.00 1.71964 25.0355 21.9105 20.6601 19.3637 17.999 16.2481 14.6537 13.0033
4 80.00 0.00 85.00 0.00 65.00 0.00 60.00 0.00 0.53787 21.0269 18.6877 17.6079 16.5345 15.4394 14.0599 12.8202 11.4861
4 110.00 0.00 125.00 0.00 35.00 0.00 20.00 0.00 0.00177563 -81.3311 -48.7414 -52.4929 -26.9366 -33.2635 -17.2432 -18.6743 -25.2442
4 125.00 0.00 140.00 0.00 20.00 0.00 5.00 0.00 0.000564434 297.08 437.342 364.022 329.822 362.67 375.8 389.149 401.431
4 90.00 0.00 95.00 0.00 55.00 0.00 50.00 0.00 0.0388242 19.5169 14.6118 13.8028 11.6253 8.94415 6.27154 4.64953 1.21571
4 85.00 0.00 90.00 0.00 60.00 0.00 55.00 0.00 0.166502 28.7094 24.9308 23.4981 21.9232 20.3709 18.5503 16.7228 14.9725
4 75.00 0.00 80.00 0.00 70.00 0.00 65.00 0.00 9.54127 21.8375 19.2653 18.1874 17.0528 15.8881 14.4097 13.0533 11.5847
4 90.00 0.00 100.00 0.00 60.00 0.00 50.00 0.00 0.195026 33.7096 29.5353 27.5599 25.6964 23.7111 21.236 18.7975 16.1481
4 80.00 0.00 90.00 0.00 70.00 0.00 60.00 0.00 2.77812 19.3179 16.8038 15.7997 14.75 13.6835 12.3337 11.1173 9.81604
4 110.00 0.00 120.00 0.00 40.00 0.00 30.00 0.00 0.00199424 -338.723 -81.1918 32.442 9.12429 -132.157 -2.44199 -6.45111 -17.0349
4 100.00 0.00 110.00 0.00 50.00 0.00 40.00 0.00 0.0055722 -70.2976 -49.389 -44.2132 -40.1352 -34.5471 -29.8836 -23.7255 -16.0086
4 130.00 0.00 145.00 0.00 25.00 0.00 10.00 0.00 0.000274697 -834.595 -681.828 -1065.17 -1023.77 -1196.77 -1183.35 -1137.14 -1012.39
4 90.00 0.00 95.00 0.00 65.00 0.00 60.00 0.00 0.145128 25.0973 21.7509 20.6852 19.2907 17.8835 16.1733 14.7427 13.1266
4 100.00 0.00 115.00 0.00 55.00 0.00 40.00 0.00 0.0171987 116.67 100.127 92.6913 85.5788 77.2807 67.0314 58.5014 50.4772
4 115.00 0.00 130.00 0.00 40.00 0.00 25.00 0.00 0.00325208 -535.229 -427.921 -381.742 -340.468 -296.522 -244.937 -202.855 -163.727
4 95.00 0.00 100.00 0.00 60.00 0.00 55.00 0.00 0.0378396 41.7173 36.9769 35.0133 31.8731 29.2086 26.6055 23.6437 21.248
4 85.00 0.00 90.00 0.00 70.00 0.00 65.00 0.00 0.520435 18.445 15.7432 14.7342 13.6395 12.5823 11.3105 10.1168 8.90879
4 85.00 0.00 100.00 0.00 70.00 0.00 55.00 0.00 1.61488 21.848 18.9266 17.6782 16.4286 15.1821 13.6428 12.2534 10.759
4 80.00 0.00 85.00 0.00 75.00 0.00 70.00 0.00 14.1129 26.5247 23.5706 22.3141 20.9941 19.6484 17.9356 16.3607 14.6543
4 105.00 0.00 115.00 0.00 55.00 0.00 45.00 0.00 0.00562716 366.334 268.662 232.228 198.483 165.279 123.148 99.6035 68.6369
4 115.00 0.00 125.00 0.00 45.00 0.00 35.00 0.00 0.00190288 -1146.82 -884.054 -784.109 -685.305 -600.71 -493.793 -410.973 -337.363
4 95.00 0.00 105.00 0.00 65.00 0.00 55.00 0.00 0.120293 38.8999 32.0783 29.3056 26.4893 23.8821 20.8811 18.3396 15.7894
4 85.00 0.00 95.00 0.00 75.00 0.00 65.00 0.00 4.27041 22.8621 20.2311 19.1069 17.9323 16.7426 15.2322 13.8617 12.3815
4 95.00 0.00 100.00 0.00 70.00 0.00 65.00 0.00 0.080684 24.4469 20.3112 18.7722 17.0534 15.4636 13.908 12.2791 10.717
4 100.00 0.00 105.00 0.00 65.00 0.00 60.00 0.00 0.0177892 54.9186 36.6826 29.8636 23.628 17.1875 9.05754 3.45241 -1.87525
4 90.00 0.00 105.00 0.00 75.00 0.00 60.00 0.00 1.80318 23.6293 20.6526 19.4602 18.192 16.8958 15.2456 13.7216 12.0895
4 120.00 0.00 135.00 0.00 45.00 0.00 30.00 0.00 0.00154652 24.3178 -13.5293 -12.2453 -6.35037 -18.5063 -21.1654 -22.2397 -34.3812
4 85.00 0.00 90.00 0.00 80.00 0.00 75.00 0.00 10.9003 22.5526 19.9849 18.9049 17.7653 16.6069 15.1376 13.7872 12.3304
4 105.00 0.00 120.00 0.00 60.00 0.00 45.00 0.00 0.0170277 10.0633 10.0182 10.7339 10.9996 10.8511 11.3482 11.3989 13.1176
4 135.00 0.00 150.00 0.00 30.00 0.00 15.00 0.00 0.000360134 -3.5059 -46.0186 -9.18174 9.83933 16.6138 14.0647 6.3304 3.82857
4 90.00 0.00 95.00 0.00 75.00 0.00 70.00 0.00 0.911067 24.1114 21.275 20.1644 18.9633 17.7181 16.168 14.7315 13.1652
4 110.00 0.00 120.00 0.00 60.00 0.00 50.00 0.00 0.00620251 -56.0194 13.5883 46.0363 45.2593 15.6444 50.5285 50.6218 46.5187
4 120.00 0.00 130.00 0.00 50.00 0.00 40.00 0.00 0.000703734 351.799 432.768 369.972 411.402 406.559 438.751 466.844 508.77
4 100.00 0.00 110.00 0.00 70.00 0.00 60.00 0.00 0.060495 39.3542 33.3859 30.7759 28.2506 25.8649 22.9683 20.331 18.136
4 90.00 0.00 100.00 0.00 80.00 0.00 70.00 0.00 3.68355 22.1225 19.5307 18.4297 17.282 16.1143 14.6422 13.2949 11.8395
4 95.00 0.00 110.00 0.00 80.00 0.00 65.00 0.00 1.03894 21.0428 18.1845 17.0825 15.8823 14.6947 13.2401 11.9201 10.5319
4 140.00 0.00 155.00 0.00 35.00 0.00 20.00 0.00 0.000666136 817.968 580.04 537.966 490.997 421.348 347.841 300.025 256.583
4 90.00 0.00 95.00 0.00 85.00 0.00 80.00 0.00 10.4642 23.3425 20.6602 19.5357 18.3516 17.1453 15.6156 14.2144 12.7008
4 110.00 0.00 125.00 0.00 65.00 0.00 50.00 0.00 0.0124392 -30.1208 -27.5374 -32.1784 -30.0861 -31.7784 -28.1039 -28.2317 -29.0848
4 105.00 0.00 110.00 0.00 70.00 0.00 65.00 0.00 0.00878227 46.2172 40.0319 38.4615 36.0741 34.3197 33.3316 33.7348 33.0045
4 95.00 0.00 100.00 0.00 80.00 0.00 75.00 0.00 0.427675 18.0561 15.967 14.7394 13.6623 12.612 11.3674 10.2553 9.1198
4 100.00 0.00 105.00 0.00 75.00 0.00 70.00 0.00 0.0768159 24.1893 17.8547 15.5111 13.1351 10.9929 8.55696 6.62223 4.98467
4 125.00 0.00 140.00 0.00 50.00 0.00 35.00 0.00 0.00167108 120.972 130.554 103.923 90.6193 87.6883 72.7893 57.8275 47.953
4 115.00 0.00 125.00 0.00 65.00 0.00 55.00 0.00 0.00384891 -432.786 -342.662 -308.605 -276.511 -244.499 -203.663 -169.861 -140.205
4 105.00 0.00 115.00 0.00 75.00 0.00 65.00 0.00 0.0457578 57.9571 45.1557 38.2792 33.175 27.8829 22.436 19.2439 15.2016
4 125.00 0.00 135.00 0.00 55.00 0.00 45.00 0.00 0.00122875 200.851 180.176 177.569 177.128 170.341 158.669 159.594 121.769
4 95.00 0.00 105.00 0.00 85.00 0.00 75.00 0.00 1.95328 18.6507 16.2932 15.3055 14.287 13.2652 11.9861 10.8197 9.53097
4 100.00 0.00 105.00 0.00 85.00 0.00 80.00 0.00 0.280618 18.9209 16.0831 15.1731 14.032 12.9481 11.6415 10.4622 9.23996
4 130.00 0.00 145.00 0.00 55.00 0.00 40.00 0.00 0.00118786 46.1643 66.7536 -11.8984 8.79779 -31.216 -26.4281 -30.1981 -9.6357
4 115.00 0.00 130.00 0.00 70.00 0.00 55.00 0.00 0.0088493 -203.1 -179.216 -170.706 -158.372 -146.708 -130.451 -117.858 -106.411
4 105.00 0.00 110.00 0.00 80.00 0.00 75.00 0.00 0.0352621 17.116 14.3907 13.4346 12.1475 10.6126 9.15177 7.74683 6.15985
4 100.00 0.00 115.00 0.00 85.00 0.00 70.00 0.00 0.666464 20.7624 17.234 15.8743 14.5256 13.1625 11.543 10.1177 8.6416
4 95.00 0.00 100.00 0.00 90.00 0.00 85.00 0.00 4.861 16.4312 14.3955 13.4765 12.5496 11.6185 10.4431 9.37763 8.22913
4 145.00 0.00 160.00 0.00 40.00 0.00 25.00 0.00 0.000760848 658.464 487.69 445.02 351.62 292.046 233.894 178.305 149.297
4 110.00 0.00 115.00 0.00 75.00 0.00 70.00 0.00 0.00991598 274.713 196.931 165.914 137.165 108.351 73.5544 43.475 13.7806
4 100.00 0.00 110.00 0.00 90.00 0.00 80.00 0.00 1.28364 16.52 14.4455 13.5675 12.6863 11.7946 10.6651 9.64138 8.57859
4 120.00 0.00 130.00 0.00 70.00 0.00 60.00 0.00 0.00261181 -68.9461 -76.8244 -98.3431 -105.6 -124.071 -131.936 -136.549 -130.635
4 110.00 0.00 120.00 0.00 80.00 0.00 70.00 0.00 0.0363144 0.340941 9.84606 14.9118 13.3655 6.4567 10.7028 9.25076 7.35505
